#Distance(A) Planar-Average-Potential(eV)/Densitiy(e/A)
  0.0000             4.00285
  0.0876             4.00349
  0.1752             4.00416
  0.2628             4.00480
  0.3504             4.00547
  0.4380             4.00611
  0.5256             4.00677
  0.6132             4.00741
  0.7008             4.00807
  0.7884             4.00871
  0.8760             4.00937
  0.9636             4.01000
  1.0512             4.01066
  1.1388             4.01129
  1.2264             4.01195
  1.3140             4.01258
  1.4016             4.01323
  1.4892             4.01386
  1.5768             4.01452
  1.6644             4.01515
  1.7520             4.01580
  1.8396             4.01643
  1.9272             4.01708
  2.0148             4.01771
  2.1025             4.01836
  2.1901             4.01898
  2.2777             4.01963
  2.3653             4.02026
  2.4529             4.02091
  2.5405             4.02154
  2.6281             4.02219
  2.7157             4.02281
  2.8033             4.02346
  2.8909             4.02409
  2.9785             4.02473
  3.0661             4.02536
  3.1537             4.02600
  3.2413             4.02663
  3.3289             4.02727
  3.4165             4.02789
  3.5041             4.02852
  3.5917             4.02914
  3.6793             4.02977
  3.7669             4.03038
  3.8545             4.03099
  3.9421             4.03159
  4.0297             4.03219
  4.1173             4.03277
  4.2049             4.03335
  4.2925             4.03390
  4.3801             4.03444
  4.4677             4.03495
  4.5553             4.03544
  4.6429             4.03588
  4.7305             4.03630
  4.8181             4.03665
  4.9057             4.03696
  4.9933             4.03718
  5.0809             4.03733
  5.1685             4.03736
  5.2561             4.03727
  5.3437             4.03702
  5.4313             4.03660
  5.5189             4.03594
  5.6065             4.03502
  5.6941             4.03378
  5.7817             4.03215
  5.8693             4.03005
  5.9569             4.02738
  6.0445             4.02404
  6.1321             4.01988
  6.2198             4.01474
  6.3074             4.00840
  6.3950             4.00065
  6.4826             3.99116
  6.5702             3.97963
  6.6578             3.96558
  6.7454             3.94857
  6.8330             3.92793
  6.9206             3.90300
  7.0082             3.87282
  7.0958             3.83646
  7.1834             3.79255
  7.2710             3.73976
  7.3586             3.67616
  7.4462             3.59986
  7.5338             3.50821
  7.6214             3.39854
  7.7090             3.26724
  7.7966             3.11057
  7.8842             2.92372
  7.9718             2.70132
  8.0594             2.44396
  8.1470             2.15548
  8.2346             1.79944
  8.3222             1.34606
  8.4098             0.74886
  8.4974            -0.00956
  8.5850            -0.90622
  8.6726            -1.91127
  8.7602            -2.96164
  8.8478            -3.98712
  8.9354            -4.91068
  9.0230            -5.66484
  9.1106            -6.19418
  9.1982            -6.46329
  9.2858            -6.44681
  9.3734            -6.16436
  9.4610            -5.66627
  9.5486            -4.98565
  9.6362            -4.17873
  9.7238            -3.30962
  9.8114            -2.44988
  9.8990            -1.66953
  9.9866            -1.02374
 10.0742            -0.54253
 10.1618            -0.25238
 10.2494            -0.13545
 10.3371            -0.17132
 10.4247            -0.33388
 10.5123            -0.59768
 10.5999            -1.02905
 10.6875            -1.66315
 10.7751            -2.55213
 10.8627            -3.69269
 10.9503            -5.09262
 11.0379            -6.72615
 11.1255            -8.50421
 11.2131           -10.32455
 11.3007           -12.06538
 11.3883           -13.59935
 11.4759           -14.81840
 11.5635           -15.61787
 11.6511           -15.90334
 11.7387           -15.65077
 11.8263           -14.87281
 11.9139           -13.61831
 12.0015           -11.97499
 12.0891           -10.06588
 12.1767            -8.03632
 12.2643            -6.04139
 12.3519            -4.21963
 12.4395            -2.67882
 12.5271            -1.50136
 12.6147            -0.67696
 12.7023            -0.19620
 12.7899            -0.01491
 12.8775            -0.07712
 12.9651            -0.40581
 13.0527            -1.06590
 13.1403            -2.07287
 13.2279            -3.44639
 13.3155            -5.15129
 13.4031            -7.08182
 13.4907            -9.12065
 13.5783           -11.11268
 13.6659           -12.90890
 13.7535           -14.37065
 13.8411           -15.39368
 13.9287           -15.90694
 14.0163           -15.88317
 14.1039           -15.32297
 14.1915           -14.28959
 14.2791           -12.89269
 14.3667           -11.23515
 14.4544            -9.43967
 14.5420            -7.63525
 14.6296            -5.93654
 14.7172            -4.44201
 14.8048            -3.22030
 14.8924            -2.26700
 14.9800            -1.59587
 15.0676            -1.17995
 15.1552            -0.98109
 15.2428            -0.94929
 15.3304            -1.04941
 15.4180            -1.34932
 15.5056            -1.87800
 15.5932            -2.68417
 15.6808            -3.76137
 15.7684            -5.11240
 15.8560            -6.71085
 15.9436            -8.46613
 16.0312           -10.27401
 16.1188           -12.01217
 16.2064           -13.55149
 16.2940           -14.78211
 16.3816           -15.59865
 16.4692           -15.90400
 16.5568           -15.67068
 16.6444           -14.91063
 16.7320           -13.67069
 16.8196           -12.03702
 16.9072           -10.12947
 16.9948            -8.09031
 17.0824            -6.07002
 17.1700            -4.20401
 17.2576            -2.59459
 17.3452            -1.32130
 17.4328            -0.37024
 17.5204             0.27537
 17.6080             0.66371
 17.6956             0.85431
 17.7832             0.82227
 17.8708             0.53541
 17.9584             0.00626
 18.0460            -0.74167
 18.1336            -1.65686
 18.2212            -2.65974
 18.3088            -3.66468
 18.3964            -4.58163
 18.4840            -5.33289
 18.5717            -5.85734
 18.6593            -6.11740
 18.7469            -6.09643
 18.8345            -5.80078
 18.9221            -5.25595
 19.0097            -4.50735
 19.0973            -3.61454
 19.1849            -2.64729
 19.2725            -1.67346
 19.3601            -0.75620
 19.4477             0.06169
 19.5353             0.75530
 19.6229             1.31180
 19.7105             1.76731
 19.7981             2.13664
 19.8857             2.43136
 19.9733             2.66731
 20.0609             2.87069
 20.1485             3.04825
 20.2361             3.19635
 20.3237             3.32121
 20.4113             3.42530
 20.4989             3.51284
 20.5865             3.58571
 20.6741             3.64693
 20.7617             3.69781
 20.8493             3.74056
 20.9369             3.77605
 21.0245             3.80592
 21.1121             3.83069
 21.1997             3.85159
 21.2873             3.86891
 21.3749             3.88360
 21.4625             3.89577
 21.5501             3.90614
 21.6377             3.91474
 21.7253             3.92214
 21.8129             3.92827
 21.9005             3.93359
 21.9881             3.93802
 22.0757             3.94192
 22.1633             3.94516
 22.2509             3.94807
 22.3385             3.95050
 22.4261             3.95273
 22.5137             3.95460
 22.6013             3.95635
 22.6890             3.95783
 22.7766             3.95926
 22.8642             3.96047
 22.9518             3.96168
 23.0394             3.96271
 23.1270             3.96375
 23.2146             3.96466
 23.3022             3.96560
 23.3898             3.96642
 23.4774             3.96728
 23.5650             3.96804
 23.6526             3.96885
 23.7402             3.96958
 23.8278             3.97035
 23.9154             3.97105
 24.0030             3.97180
 24.0906             3.97248
 24.1782             3.97322
 24.2658             3.97389
 24.3534             3.97461
 24.4410             3.97527
 24.5286             3.97599
 24.6162             3.97664
 24.7038             3.97735
 24.7914             3.97801
 24.8790             3.97871
 24.9666             3.97937
 25.0542             3.98007
 25.1418             3.98072
 25.2294             3.98142
 25.3170             3.98208
 25.4046             3.98278
 25.4922             3.98343
 25.5798             3.98413
 25.6674             3.98478
 25.7550             3.98548
 25.8426             3.98614
 25.9302             3.98683
 26.0178             3.98749
 26.1054             3.98818
 26.1930             3.98884
 26.2806             3.98953
 26.3682             3.99018
 26.4558             3.99087
 26.5434             3.99153
 26.6310             3.99222
 26.7186             3.99287
 26.8063             3.99356
 26.8939             3.99421
 26.9815             3.99490
 27.0691             3.99555
 27.1567             3.99623
 27.2443             3.99688
 27.3319             3.99757
 27.4195             3.99821
 27.5071             3.99889
 27.5947             3.99954
 27.6823             4.00022
 27.7699             4.00086
 27.8575             4.00154
 27.9451             4.00218
